First column is AoA (deg) and first row is Reynolds Number
0.000000	200000.000000	300000.000000	400000.000000	500000.000000	600000.000000	700000.000000	800000.000000	900000.000000	1000000.000000	1100000.000000	1200000.000000	1300000.000000	1400000.000000	1500000.000000	1600000.000000	1700000.000000	1800000.000000	1900000.000000	2000000.000000	2100000.000000	2200000.000000	2300000.000000	2400000.000000	2500000.000000	2600000.000000	2700000.000000	2800000.000000	2900000.000000	3000000.000000	3100000.000000	3200000.000000	3300000.000000	3400000.000000	3500000.000000	3600000.000000	3700000.000000	3800000.000000	3900000.000000	4000000.000000
-180.000000	-0.039200	-0.040000	-0.040600	-0.041000	-0.041300	-0.041500	-0.041700	-0.041900	-0.042100	-0.042200	-0.042300	-0.042400	-0.042500	-0.042600	-0.042700	-0.042800	-0.042900	-0.042900	-0.043000	-0.043000	-0.043100	-0.043200	-0.043200	-0.043300	-0.043300	-0.043300	-0.043400	-0.043400	-0.043500	-0.043500	-0.043500	-0.043600	-0.043600	-0.043600	-0.043700	-0.043700	-0.043700	-0.043800	-0.043800
-179.000000	0.048700	0.047800	0.043300	0.026400	-0.002200	-0.007200	0.019900	0.042800	0.048300	0.049100	0.049200	0.049200	0.049200	0.049100	0.049100	0.049100	0.049100	0.049100	0.049100	0.049100	0.049100	0.049100	0.049100	0.049100	0.049100	0.049100	0.049000	0.049000	0.049000	0.049000	0.049000	0.049000	0.049000	0.049000	0.049000	0.049000	0.049000	0.049000	0.049000
-178.000000	0.134400	0.130300	0.115800	0.080100	0.034400	0.026500	0.069400	0.115600	0.134000	0.139200	0.140400	0.140700	0.140800	0.140900	0.141000	0.141000	0.141100	0.141100	0.141200	0.141200	0.141300	0.141300	0.141400	0.141400	0.141400	0.141400	0.141500	0.141500	0.141500	0.141600	0.141600	0.141600	0.141600	0.141600	0.141700	0.141700	0.141700	0.141700	0.141700
-177.000000	0.212800	0.200400	0.172200	0.122200	0.069100	0.059500	0.109500	0.171800	0.208000	0.223400	0.229200	0.231500	0.232300	0.232600	0.232800	0.233000	0.233100	0.233200	0.233300	0.233400	0.233500	0.233600	0.233600	0.233700	0.233800	0.233800	0.233900	0.234000	0.234000	0.234100	0.234100	0.234200	0.234200	0.234300	0.234300	0.234400	0.234400	0.234500	0.234500
-176.000000	0.275500	0.252100	0.212100	0.156100	0.102400	0.092000	0.143100	0.211100	0.262900	0.293000	0.308800	0.316900	0.321000	0.323100	0.324100	0.324700	0.325000	0.325200	0.325400	0.325500	0.325700	0.325800	0.325900	0.326000	0.326100	0.326200	0.326300	0.326400	0.326500	0.326600	0.326700	0.326800	0.326900	0.326900	0.327000	0.327100	0.327100	0.327200	0.327200
-175.000000	0.316800	0.284300	0.239200	0.184800	0.134500	0.123800	0.172700	0.237700	0.296300	0.339500	0.368300	0.386700	0.398300	0.405700	0.410300	0.413200	0.415000	0.416200	0.416900	0.417400	0.417800	0.418000	0.418200	0.418400	0.418500	0.418600	0.418800	0.418900	0.419000	0.419100	0.419300	0.419400	0.419500	0.419600	0.419700	0.419800	0.419800	0.419900	0.420000
-174.000000	0.337700	0.302200	0.258800	0.210600	0.165500	0.155000	0.199900	0.257100	0.313200	0.361500	0.399800	0.429100	0.450900	0.467100	0.478900	0.487700	0.494100	0.498800	0.502300	0.504800	0.506700	0.508100	0.509100	0.509900	0.510400	0.510800	0.511100	0.511300	0.511500	0.511700	0.511800	0.512000	0.512100	0.512200	0.512300	0.512400	0.512600	0.512700	0.512800
-173.000000	0.345800	0.312800	0.275300	0.234900	0.195700	0.185600	0.225700	0.273400	0.321700	0.366600	0.406600	0.441000	0.470100	0.494500	0.514700	0.531400	0.545100	0.556400	0.565700	0.573300	0.579600	0.584700	0.589000	0.592400	0.595200	0.597500	0.599300	0.600800	0.601900	0.602800	0.603500	0.604100	0.604500	0.604800	0.605000	0.605100	0.605300	0.605400	0.605500
-172.000000	0.349200	0.321700	0.291300	0.258600	0.225000	0.215600	0.250800	0.289400	0.328000	0.365200	0.400200	0.432500	0.462200	0.489100	0.513500	0.535400	0.555100	0.572700	0.588500	0.602600	0.615100	0.626300	0.636300	0.645200	0.653000	0.660000	0.666100	0.671600	0.676300	0.680500	0.684100	0.687200	0.689900	0.692200	0.694000	0.695500	0.696700	0.697500	0.698100
-171.000000	0.353400	0.331700	0.308000	0.282000	0.253600	0.244900	0.275500	0.306000	0.335800	0.364400	0.391900	0.418100	0.443100	0.466900	0.489500	0.511000	0.531400	0.550700	0.569100	0.586500	0.603000	0.618700	0.633500	0.647600	0.660900	0.673500	0.685400	0.696700	0.707400	0.717400	0.726900	0.735700	0.744100	0.751900	0.759200	0.765900	0.772100	0.777800	0.782800
-170.000000	0.360500	0.343900	0.325800	0.305300	0.281500	0.273500	0.299800	0.323800	0.346100	0.367400	0.387600	0.407100	0.425900	0.444200	0.461900	0.479100	0.496000	0.512500	0.528800	0.544700	0.560300	0.575800	0.591000	0.606100	0.621000	0.635800	0.650400	0.665000	0.679500	0.694000	0.708400	0.722900	0.737400	0.752000	0.766700	0.781600	0.796800	0.812400	0.828700
-169.000000	0.370900	0.358400	0.344500	0.328500	0.308700	0.301400	0.323900	0.342500	0.359200	0.374600	0.389100	0.402900	0.416200	0.429200	0.441800	0.454200	0.466400	0.478600	0.490600	0.502600	0.514600	0.526700	0.538800	0.551100	0.563500	0.576200	0.589000	0.602200	0.615800	0.629700	0.644200	0.659200	0.675000	0.691600	0.709400	0.728500	0.749400	0.772800	0.799700
-168.000000	0.384200	0.374700	0.364200	0.351600	0.335200	0.328600	0.347700	0.362100	0.374400	0.385500	0.395700	0.405300	0.414500	0.423300	0.431900	0.440300	0.448600	0.456800	0.465000	0.473200	0.481400	0.489700	0.498100	0.506700	0.515400	0.524400	0.533600	0.543100	0.553100	0.563500	0.574400	0.586100	0.598500	0.612000	0.626800	0.643200	0.661900	0.683900	0.710900
-167.000000	0.399700	0.392500	0.384400	0.374500	0.361000	0.355100	0.371100	0.382200	0.391300	0.399200	0.406400	0.413000	0.419200	0.425200	0.430900	0.436500	0.441900	0.447300	0.452700	0.458000	0.463300	0.468700	0.474100	0.479700	0.485300	0.491100	0.497100	0.503300	0.509700	0.516500	0.523700	0.531400	0.539600	0.548600	0.558600	0.569800	0.582800	0.598300	0.618000
-166.000000	0.416800	0.411200	0.404900	0.397200	0.386000	0.380800	0.394200	0.402700	0.409300	0.415000	0.420000	0.424500	0.428700	0.432700	0.436500	0.440100	0.443700	0.447200	0.450600	0.454000	0.457400	0.460800	0.464200	0.467700	0.471200	0.474800	0.478500	0.482400	0.486400	0.490600	0.495000	0.499700	0.504800	0.510300	0.516400	0.523300	0.531300	0.540900	0.553100
-165.000000	0.435000	0.430500	0.425600	0.419500	0.410300	0.405800	0.416800	0.423300	0.428100	0.432100	0.435600	0.438600	0.441500	0.444100	0.446600	0.449000	0.451300	0.453500	0.455700	0.457900	0.460000	0.462200	0.464300	0.466400	0.468600	0.470900	0.473100	0.475500	0.477900	0.480500	0.483100	0.486000	0.489000	0.492300	0.495900	0.500000	0.504700	0.510400	0.517500
-164.000000	0.453800	0.450100	0.446100	0.441300	0.433900	0.429900	0.438900	0.443800	0.447300	0.450000	0.452400	0.454500	0.456400	0.458100	0.459800	0.461300	0.462800	0.464200	0.465600	0.466900	0.468300	0.469600	0.470900	0.472300	0.473600	0.475000	0.476400	0.477800	0.479300	0.480800	0.482400	0.484100	0.485900	0.487900	0.490000	0.492400	0.495200	0.498500	0.502600
-163.000000	0.472800	0.469700	0.466500	0.462700	0.456600	0.453200	0.460400	0.464000	0.466500	0.468400	0.470000	0.471400	0.472600	0.473800	0.474800	0.475800	0.476700	0.477600	0.478500	0.479300	0.480100	0.480900	0.481800	0.482600	0.483400	0.484200	0.485100	0.485900	0.486800	0.487700	0.488700	0.489700	0.490800	0.491900	0.493200	0.494600	0.496200	0.498100	0.500500
-162.000000	0.491900	0.489200	0.486500	0.483400	0.478600	0.475600	0.481300	0.483900	0.485600	0.486900	0.487900	0.488800	0.489600	0.490300	0.490900	0.491500	0.492100	0.492600	0.493200	0.493700	0.494200	0.494600	0.495100	0.495600	0.496100	0.496600	0.497100	0.497600	0.498100	0.498600	0.499200	0.499800	0.500400	0.501100	0.501900	0.502700	0.503600	0.504700	0.506100
-161.000000	0.510800	0.508300	0.506100	0.503600	0.499700	0.497200	0.501600	0.503300	0.504500	0.505300	0.505900	0.506400	0.506900	0.507300	0.507600	0.508000	0.508300	0.508600	0.508900	0.509200	0.509400	0.509700	0.510000	0.510200	0.510500	0.510800	0.511000	0.511300	0.511600	0.511900	0.512200	0.512600	0.512900	0.513300	0.513800	0.514200	0.514800	0.515400	0.516200
-160.000000	0.529300	0.527000	0.525100	0.523000	0.519900	0.517800	0.521000	0.522200	0.522900	0.523300	0.523700	0.523900	0.524100	0.524300	0.524500	0.524700	0.524800	0.524900	0.525100	0.525200	0.525300	0.525400	0.525600	0.525700	0.525800	0.525900	0.526100	0.526200	0.526400	0.526500	0.526700	0.526900	0.527000	0.527200	0.527500	0.527700	0.528000	0.528400	0.528800
-159.000000	0.547400	0.545200	0.543400	0.541700	0.539300	0.537600	0.539800	0.540400	0.540800	0.540900	0.541000	0.541100	0.541200	0.541200	0.541200	0.541300	0.541300	0.541300	0.541300	0.541400	0.541400	0.541400	0.541400	0.541500	0.541500	0.541500	0.541600	0.541600	0.541700	0.541700	0.541800	0.541900	0.541900	0.542000	0.542100	0.542200	0.542400	0.542500	0.542800
-158.000000	0.564800	0.562700	0.561100	0.559700	0.557800	0.556400	0.557700	0.558000	0.558000	0.558000	0.557900	0.557900	0.557800	0.557700	0.557600	0.557600	0.557500	0.557500	0.557400	0.557400	0.557300	0.557300	0.557200	0.557200	0.557200	0.557100	0.557100	0.557100	0.557100	0.557100	0.557100	0.557100	0.557100	0.557100	0.557100	0.557100	0.557200	0.557200	0.557300
-157.000000	0.581600	0.579500	0.578000	0.576800	0.575400	0.574300	0.574800	0.574700	0.574600	0.574400	0.574200	0.574000	0.573900	0.573700	0.573600	0.573400	0.573300	0.573200	0.573100	0.573000	0.572900	0.572800	0.572700	0.572600	0.572600	0.572500	0.572400	0.572400	0.572300	0.572200	0.572200	0.572100	0.572100	0.572100	0.572000	0.572000	0.572000	0.572000	0.572000
-156.000000	0.597700	0.595600	0.594100	0.593000	0.592000	0.591200	0.591000	0.590700	0.590400	0.590100	0.589800	0.589500	0.589300	0.589100	0.588900	0.588700	0.588500	0.588400	0.588200	0.588100	0.588000	0.587800	0.587700	0.587600	0.587500	0.587400	0.587300	0.587200	0.587100	0.587000	0.586900	0.586900	0.586800	0.586700	0.586700	0.586600	0.586500	0.586500	0.586400
-155.000000	0.613000	0.610800	0.609400	0.608400	0.607700	0.607200	0.606400	0.605800	0.605400	0.605000	0.604600	0.604300	0.604000	0.603700	0.603500	0.603300	0.603100	0.602900	0.602700	0.602500	0.602400	0.602200	0.602100	0.602000	0.601800	0.601700	0.601600	0.601500	0.601400	0.601300	0.601200	0.601100	0.601000	0.600900	0.600800	0.600700	0.600600	0.600500	0.600400
-154.000000	0.627400	0.625200	0.623800	0.622900	0.622500	0.622100	0.620800	0.620100	0.619500	0.619000	0.618600	0.618300	0.617900	0.617600	0.617400	0.617100	0.616900	0.616700	0.616500	0.616300	0.616100	0.615900	0.615800	0.615600	0.615500	0.615300	0.615200	0.615100	0.614900	0.614800	0.614700	0.614600	0.614500	0.614400	0.614300	0.614200	0.614100	0.614000	0.613900
-153.000000	0.641000	0.638800	0.637300	0.636400	0.636200	0.636100	0.634300	0.633400	0.632800	0.632200	0.631800	0.631400	0.631000	0.630700	0.630400	0.630100	0.629900	0.629700	0.629400	0.629200	0.629000	0.628800	0.628700	0.628500	0.628300	0.628200	0.628100	0.627900	0.627800	0.627600	0.627500	0.627400	0.627300	0.627200	0.627000	0.626900	0.626800	0.626700	0.626600
-152.000000	0.653700	0.651400	0.649900	0.649000	0.649000	0.649000	0.646800	0.645800	0.645100	0.644500	0.644100	0.643600	0.643200	0.642900	0.642600	0.642300	0.642000	0.641800	0.641500	0.641300	0.641100	0.640900	0.640700	0.640600	0.640400	0.640200	0.640100	0.639900	0.639800	0.639600	0.639500	0.639400	0.639200	0.639100	0.639000	0.638900	0.638700	0.638600	0.638500
-151.000000	0.665400	0.663000	0.661500	0.660700	0.660800	0.661000	0.658400	0.657300	0.656600	0.655900	0.655400	0.655000	0.654600	0.654200	0.653900	0.653600	0.653300	0.653000	0.652800	0.652500	0.652300	0.652100	0.651900	0.651700	0.651600	0.651400	0.651200	0.651100	0.650900	0.650800	0.650600	0.650500	0.650400	0.650200	0.650100	0.650000	0.649800	0.649700	0.649600
-150.000000	0.676200	0.673800	0.672200	0.671300	0.671600	0.671900	0.669000	0.667800	0.667000	0.666400	0.665800	0.665400	0.664900	0.664600	0.664200	0.663900	0.663600	0.663300	0.663100	0.662800	0.662600	0.662400	0.662200	0.662000	0.661800	0.661700	0.661500	0.661300	0.661200	0.661000	0.660900	0.660700	0.660600	0.660500	0.660300	0.660200	0.660000	0.659900	0.659800
-149.000000	0.686000	0.683500	0.681900	0.681000	0.681300	0.681800	0.678600	0.677400	0.676500	0.675900	0.675300	0.674800	0.674400	0.674000	0.673600	0.673300	0.673000	0.672700	0.672500	0.672200	0.672000	0.671800	0.671600	0.671400	0.671200	0.671000	0.670800	0.670600	0.670500	0.670300	0.670200	0.670000	0.669900	0.669700	0.669600	0.669500	0.669300	0.669200	0.669100
-148.000000	0.694900	0.692300	0.690600	0.689700	0.690100	0.681900	0.687200	0.686000	0.685100	0.684400	0.683800	0.683300	0.682800	0.682400	0.682100	0.681700	0.681400	0.681100	0.680900	0.680600	0.680400	0.680200	0.679900	0.679700	0.679500	0.679400	0.679200	0.679000	0.678800	0.678700	0.678500	0.678400	0.678200	0.678100	0.678000	0.677800	0.677700	0.677500	0.677400
-147.000000	0.702700	0.700000	0.698400	0.697400	0.697800	0.689900	0.694800	0.693500	0.692600	0.691900	0.691300	0.690800	0.690300	0.689900	0.689600	0.689200	0.688900	0.688600	0.688300	0.688100	0.687800	0.687600	0.687400	0.687200	0.687000	0.686800	0.686600	0.686400	0.686200	0.686100	0.685900	0.685800	0.685600	0.685500	0.685300	0.685200	0.685100	0.684900	0.684800
-146.000000	0.709600	0.706800	0.705100	0.704100	0.704500	0.696900	0.701400	0.700100	0.699200	0.698500	0.697800	0.697300	0.696800	0.696400	0.696000	0.695700	0.695400	0.695100	0.694800	0.694500	0.694300	0.694000	0.693800	0.693600	0.693400	0.693200	0.693000	0.692800	0.692700	0.692500	0.692300	0.692200	0.692000	0.691900	0.691700	0.691600	0.691500	0.691300	0.691200
-145.000000	0.715500	0.712600	0.710800	0.709800	0.710200	0.702800	0.707000	0.705700	0.704700	0.704000	0.703400	0.702800	0.702400	0.701900	0.701500	0.701200	0.700900	0.700500	0.700300	0.700000	0.699700	0.699500	0.699300	0.699100	0.698800	0.698700	0.698500	0.698300	0.698100	0.697900	0.697800	0.697600	0.697500	0.697300	0.697200	0.697000	0.696900	0.696700	0.696600
-144.000000	0.720300	0.717400	0.715500	0.714400	0.714900	0.707700	0.711600	0.710200	0.709300	0.708500	0.707900	0.707400	0.706900	0.706400	0.706100	0.705700	0.705400	0.705000	0.704700	0.704500	0.704200	0.704000	0.703700	0.703500	0.703300	0.703100	0.702900	0.702700	0.702600	0.702400	0.702200	0.702100	0.701900	0.701800	0.701600	0.701500	0.701300	0.701200	0.701000
-143.000000	0.724100	0.721100	0.719200	0.718100	0.718600	0.711600	0.715200	0.713800	0.712900	0.712100	0.711500	0.710900	0.710400	0.710000	0.709600	0.709200	0.708900	0.708500	0.708200	0.708000	0.707700	0.707500	0.707200	0.707000	0.706800	0.706600	0.706400	0.706200	0.706000	0.705900	0.705700	0.705500	0.705400	0.705200	0.705100	0.704900	0.704800	0.704600	0.704500
-142.000000	0.727000	0.723900	0.721900	0.720800	0.721200	0.714400	0.717800	0.716400	0.715400	0.714700	0.714000	0.713400	0.713000	0.712500	0.712100	0.711700	0.711400	0.711000	0.710700	0.710500	0.710200	0.710000	0.709700	0.709500	0.709300	0.709100	0.708900	0.708700	0.708500	0.708300	0.708200	0.708000	0.707800	0.707700	0.707500	0.707400	0.707200	0.707100	0.706900
-141.000000	0.728800	0.725600	0.723600	0.722400	0.722800	0.716200	0.719400	0.718000	0.717000	0.716200	0.715600	0.715000	0.714500	0.714000	0.713600	0.713300	0.712900	0.712600	0.712300	0.712000	0.711700	0.711500	0.711200	0.711000	0.710800	0.710600	0.710400	0.710200	0.710000	0.709800	0.709700	0.709500	0.709300	0.709200	0.709000	0.708900	0.708700	0.708600	0.708400
-140.000000	0.729600	0.726400	0.724300	0.723100	0.723500	0.717000	0.720000	0.718600	0.717600	0.716800	0.716100	0.715600	0.715100	0.714600	0.714200	0.713800	0.713400	0.713100	0.712800	0.712500	0.712300	0.712000	0.711800	0.711500	0.711300	0.711100	0.710900	0.710700	0.710500	0.710300	0.710200	0.710000	0.709800	0.709700	0.709500	0.709400	0.709200	0.709100	0.708900
-139.000000	0.729400	0.726100	0.724000	0.722800	0.723100	0.716900	0.719600	0.718200	0.717200	0.716400	0.715700	0.715200	0.714700	0.714200	0.713800	0.713400	0.713000	0.712700	0.712400	0.712100	0.711800	0.711600	0.711300	0.711100	0.710900	0.710600	0.710400	0.710200	0.710100	0.709900	0.709700	0.709500	0.709400	0.709200	0.709100	0.708900	0.708800	0.708600	0.708500
-138.000000	0.728300	0.724900	0.722700	0.721500	0.721800	0.715700	0.718300	0.716800	0.715800	0.715000	0.714400	0.713800	0.713300	0.712800	0.712400	0.712000	0.711600	0.711300	0.711000	0.710700	0.710400	0.710200	0.709900	0.709700	0.709400	0.709200	0.709000	0.708800	0.708600	0.708500	0.708300	0.708100	0.708000	0.707800	0.707600	0.707500	0.707300	0.707200	0.707000
-137.000000	0.726100	0.722700	0.720500	0.719200	0.719500	0.713600	0.715900	0.714500	0.713500	0.712700	0.712000	0.711500	0.710900	0.710500	0.710000	0.709700	0.709300	0.708900	0.708600	0.708300	0.708100	0.707800	0.707500	0.707300	0.707100	0.706900	0.706700	0.706500	0.706300	0.706100	0.705900	0.705700	0.705600	0.705400	0.705300	0.705100	0.705000	0.704800	0.704700
-136.000000	0.723000	0.719500	0.717300	0.716000	0.716300	0.710400	0.712700	0.711200	0.710300	0.709500	0.708800	0.708200	0.707700	0.707200	0.706800	0.706400	0.706000	0.705700	0.705300	0.705000	0.704800	0.704500	0.704200	0.704000	0.703800	0.703600	0.703400	0.703200	0.703000	0.702800	0.702600	0.702400	0.702300	0.702100	0.702000	0.701800	0.701600	0.701500	0.701400
-135.000000	0.719000	0.715400	0.713200	0.711800	0.712100	0.706400	0.708500	0.707000	0.706000	0.705200	0.704600	0.704000	0.703500	0.703000	0.702500	0.702200	0.701800	0.701400	0.701100	0.700800	0.700500	0.700300	0.700000	0.699800	0.699600	0.699300	0.699100	0.698900	0.698700	0.698500	0.698400	0.698200	0.698000	0.697900	0.697700	0.697600	0.697400	0.697300	0.697100
-134.000000	0.714000	0.710400	0.708100	0.706700	0.706900	0.701400	0.703300	0.701900	0.700900	0.700100	0.699400	0.698900	0.698300	0.697900	0.697400	0.697000	0.696600	0.696300	0.696000	0.695700	0.695400	0.695100	0.694900	0.694600	0.694400	0.694200	0.694000	0.693800	0.693600	0.693400	0.693200	0.693100	0.692900	0.692700	0.692600	0.692400	0.692300	0.692100	0.692000
-133.000000	0.708000	0.704400	0.702100	0.700700	0.700900	0.695500	0.697300	0.695900	0.694900	0.694100	0.693400	0.692800	0.692300	0.691800	0.691400	0.691000	0.690600	0.690300	0.689900	0.689600	0.689400	0.689100	0.688800	0.688600	0.688400	0.688100	0.687900	0.687700	0.687500	0.687400	0.687200	0.687000	0.686800	0.686700	0.686500	0.686400	0.686200	0.686100	0.685900
-132.000000	0.701200	0.697600	0.695200	0.693800	0.694000	0.688700	0.690400	0.688900	0.688000	0.687200	0.686500	0.685900	0.685400	0.684900	0.684500	0.684100	0.683700	0.683300	0.683000	0.682700	0.682400	0.682200	0.681900	0.681700	0.681400	0.681200	0.681000	0.680800	0.680600	0.680400	0.680300	0.680100	0.679900	0.679800	0.679600	0.679400	0.679300	0.679100	0.679000
-131.000000	0.693400	0.689800	0.687500	0.686000	0.686100	0.681000	0.682600	0.681100	0.680200	0.679400	0.678700	0.678100	0.677600	0.677100	0.676700	0.676300	0.675900	0.675600	0.675200	0.674900	0.674700	0.674400	0.674100	0.673900	0.673700	0.673400	0.673200	0.673000	0.672800	0.672700	0.672500	0.672300	0.672100	0.672000	0.671800	0.671700	0.671500	0.671400	0.671200
-130.000000	0.684800	0.681200	0.678800	0.677300	0.677500	0.672400	0.673900	0.672500	0.671500	0.670700	0.670100	0.669500	0.669000	0.668500	0.668000	0.667600	0.667300	0.666900	0.666600	0.666300	0.666000	0.665800	0.665500	0.665300	0.665000	0.664800	0.664600	0.664400	0.664200	0.664000	0.663800	0.663700	0.663500	0.663300	0.663200	0.663000	0.662900	0.662700	0.662600
-129.000000	0.675400	0.671700	0.669300	0.667800	0.664200	0.663000	0.664400	0.663000	0.662000	0.661300	0.660600	0.660000	0.659500	0.659000	0.658600	0.658200	0.657800	0.657500	0.657100	0.656800	0.656600	0.656300	0.656000	0.655800	0.655600	0.655400	0.655100	0.654900	0.654800	0.654600	0.654400	0.654200	0.654100	0.653900	0.653700	0.653600	0.653400	0.653300	0.653100
-128.000000	0.665000	0.661400	0.659000	0.657500	0.654000	0.652800	0.654100	0.652700	0.651800	0.651000	0.650300	0.649700	0.649200	0.648700	0.648300	0.647900	0.647500	0.647200	0.646900	0.646600	0.646300	0.646000	0.645800	0.645500	0.645300	0.645100	0.644900	0.644700	0.644500	0.644300	0.644100	0.644000	0.643800	0.643600	0.643500	0.643300	0.643200	0.643000	0.642900
